Time[s],Voltage[V]
0,0.0121
0.0001,0.0024
0.0002,0.0121
0.00030000000000000003,0.0113
0.0004,0.0193
0.0005,0.0210
0.0006000000000000001,0.0274
0.0007000000000000001,0.0250
0.0008000000000000001,0.0371
0.0009000000000000002,0.0322
0.0010000000000000002,0.0451
0.0011000000000000003,0.0435
0.0012000000000000003,0.0419
0.0013000000000000004,0.0492
0.0014000000000000004,0.0621
0.0015000000000000005,0.0604
0.0016000000000000005,0.0653
0.0017000000000000006,0.0645
0.0018000000000000006,0.0677
0.0019000000000000006,0.0830
0.0020000000000000005,0.0766
0.0021000000000000003,0.0741
0.0022,0.0790
0.0023,0.0862
0.0024,0.0854
0.0024999999999999996,0.0943
0.0025999999999999994,0.0919
0.0026999999999999993,0.0886
0.002799999999999999,0.1023
0.002899999999999999,0.1023
0.0029999999999999988,0.1096
0.0030999999999999986,0.1072
0.0031999999999999984,0.1120
0.0032999999999999982,0.1209
0.003399999999999998,0.1209
0.003499999999999998,0.1217
0.0035999999999999977,0.1289
0.0036999999999999976,0.1330
0.0037999999999999974,0.1362
0.0038999999999999972,0.1418
0.0039999999999999975,0.1442
0.004099999999999998,0.1491
0.004199999999999998,0.1451
0.004299999999999998,0.1596
0.0043999999999999985,0.1571
0.004499999999999999,0.1547
0.004599999999999999,0.1612
0.004699999999999999,0.1660
0.0048,0.1612
0.0049,0.1652
0.005,0.1692
0.0051,0.1725
0.005200000000000001,0.1853
0.005300000000000001,0.1829
0.005400000000000001,0.1853
0.005500000000000001,0.1950
0.005600000000000002,0.1886
0.005700000000000002,0.2023
0.005800000000000002,0.2007
0.0059000000000000025,0.1990
0.006000000000000003,0.2031
0.006100000000000003,0.2087
0.006200000000000003,0.2152
0.0063000000000000035,0.2216
0.006400000000000004,0.2127
0.006500000000000004,0.2200
0.006600000000000004,0.2224
0.0067000000000000046,0.2305
0.006800000000000005,0.2240
0.006900000000000005,0.2281
0.007000000000000005,0.2401
0.007100000000000006,0.2369
0.007200000000000006,0.2410
0.007300000000000006,0.2426
0.007400000000000006,0.2426
0.007500000000000007,0.2587
0.007600000000000007,0.2418
0.007700000000000007,0.2579
0.0078000000000000074,0.2595
0.007900000000000008,0.2603
0.008000000000000007,0.2684
0.008100000000000007,0.2708
0.008200000000000006,0.2724
0.008300000000000005,0.2651
0.008400000000000005,0.2821
0.008500000000000004,0.2772
0.008600000000000003,0.2748
0.008700000000000003,0.2804
0.008800000000000002,0.2853
0.008900000000000002,0.2861
0.009000000000000001,0.2917
0.0091,0.2869
0.0092,0.2990
0.0093,0.3054
0.009399999999999999,0.3207
0.009499999999999998,0.2990
0.009599999999999997,0.3022
0.009699999999999997,0.3167
0.009799999999999996,0.3135
0.009899999999999996,0.3183
0.009999999999999995,0.3248
0.010099999999999994,0.3223
0.010199999999999994,0.3280
0.010299999999999993,0.3232
0.010399999999999993,0.3368
0.010499999999999992,0.3232
0.010599999999999991,0.3304
0.01069999999999999,0.3352
0.01079999999999999,0.3449
0.01089999999999999,0.3465
0.010999999999999989,0.3433
0.011099999999999988,0.3489
0.011199999999999988,0.3554
0.011299999999999987,0.3602
0.011399999999999987,0.3594
0.011499999999999986,0.3618
0.011599999999999985,0.3626
0.011699999999999985,0.3594
0.011799999999999984,0.3659
0.011899999999999984,0.3707
0.011999999999999983,0.3788
0.012099999999999982,0.3796
0.012199999999999982,0.3876
0.012299999999999981,0.3836
0.01239999999999998,0.3852
0.01249999999999998,0.3884
0.01259999999999998,0.3860
0.012699999999999979,0.3876
0.012799999999999978,0.3957
0.012899999999999977,0.4070
0.012999999999999977,0.4005
0.013099999999999976,0.3989
0.013199999999999976,0.4070
0.013299999999999975,0.4013
0.013399999999999974,0.4110
0.013499999999999974,0.4134
0.013599999999999973,0.4134
0.013699999999999973,0.4190
0.013799999999999972,0.4174
0.013899999999999971,0.4279
0.01399999999999997,0.4239
0.01409999999999997,0.4215
0.01419999999999997,0.4303
0.014299999999999969,0.4336
0.014399999999999968,0.4384
0.014499999999999968,0.4464
0.014599999999999967,0.4352
0.014699999999999967,0.4448
0.014799999999999966,0.4456
0.014899999999999965,0.4537
0.014999999999999965,0.4545
0.015099999999999964,0.4473
0.015199999999999964,0.4601
0.015299999999999963,0.4521
0.015399999999999962,0.4666
0.015499999999999962,0.4610
0.015599999999999961,0.4626
0.01569999999999996,0.4714
0.01579999999999996,0.4747
0.01589999999999996,0.4714
0.01599999999999996,0.4843
0.016099999999999958,0.4787
0.016199999999999957,0.4851
0.016299999999999957,0.4859
0.016399999999999956,0.4875
0.016499999999999956,0.4964
0.016599999999999955,0.4940
0.016699999999999954,0.4988
0.016799999999999954,0.4948
0.016899999999999953,0.4932
0.016999999999999953,0.5004
0.017099999999999952,0.5012
0.01719999999999995,0.5101
0.01729999999999995,0.5021
0.01739999999999995,0.5141
0.01749999999999995,0.5141
0.01759999999999995,0.5085
0.01769999999999995,0.5190
0.017799999999999948,0.5190
0.017899999999999947,0.5190
0.017999999999999947,0.5222
0.018099999999999946,0.5246
0.018199999999999945,0.5327
0.018299999999999945,0.5319
0.018399999999999944,0.5432
0.018499999999999944,0.5351
0.018599999999999943,0.5391
0.018699999999999942,0.5335
0.018799999999999942,0.5359
0.01889999999999994,0.5464
0.01899999999999994,0.5432
0.01909999999999994,0.5488
0.01919999999999994,0.5520
0.01929999999999994,0.5536
0.019399999999999938,0.5504
0.019499999999999938,0.5593
0.019599999999999937,0.5609
0.019699999999999936,0.5544
0.019799999999999936,0.5585
0.019899999999999935,0.5609
0.019999999999999934,0.5762
0.020099999999999934,0.5641
0.020199999999999933,0.5762
0.020299999999999933,0.5794
0.020399999999999932,0.5794
0.02049999999999993,0.5786
0.02059999999999993,0.5778
0.02069999999999993,0.5842
0.02079999999999993,0.5762
0.02089999999999993,0.5891
0.02099999999999993,0.5907
0.021099999999999928,0.5963
0.021199999999999927,0.5996
0.021299999999999927,0.6044
0.021399999999999926,0.6044
0.021499999999999925,0.5988
0.021599999999999925,0.6052
0.021699999999999924,0.6052
0.021799999999999924,0.6100
0.021899999999999923,0.6052
0.021999999999999922,0.6012
0.022099999999999922,0.6133
0.02219999999999992,0.6141
0.02229999999999992,0.6165
0.02239999999999992,0.6189
0.02249999999999992,0.6213
0.02259999999999992,0.6253
0.022699999999999918,0.6262
0.022799999999999918,0.6302
0.022899999999999917,0.6334
0.022999999999999916,0.6326
0.023099999999999916,0.6358
0.023199999999999915,0.6374
0.023299999999999915,0.6495
0.023399999999999914,0.6334
0.023499999999999913,0.6471
0.023599999999999913,0.6511
0.023699999999999912,0.6455
0.02379999999999991,0.6511
0.02389999999999991,0.6600
0.02399999999999991,0.6576
0.02409999999999991,0.6584
0.02419999999999991,0.6479
0.02429999999999991,0.6632
0.024399999999999908,0.6640
0.024499999999999907,0.6640
0.024599999999999907,0.6624
0.024699999999999906,0.6761
0.024799999999999905,0.6664
0.024899999999999905,0.6697
0.024999999999999904,0.6681
0.025099999999999904,0.6826
0.025199999999999903,0.6729
0.025299999999999902,0.6785
0.025399999999999902,0.6777
0.0254999999999999,0.6834
0.0255999999999999,0.6882
0.0256999999999999,0.6930
0.0257999999999999,0.6874
0.0258999999999999,0.6995
0.025999999999999898,0.6979
0.026099999999999898,0.6922
0.026199999999999897,0.7019
0.026299999999999896,0.7035
0.026399999999999896,0.7019
0.026499999999999895,0.7075
0.026599999999999895,0.7011
0.026699999999999894,0.7075
0.026799999999999893,0.7116
0.026899999999999893,0.7084
0.026999999999999892,0.7188
0.02709999999999989,0.7164
0.02719999999999989,0.7180
0.02729999999999989,0.7156
0.02739999999999989,0.7221
0.02749999999999989,0.7229
0.02759999999999989,0.7221
0.027699999999999888,0.7293
0.027799999999999887,0.7293
0.027899999999999887,0.7333
0.027999999999999886,0.7285
0.028099999999999885,0.7341
0.028199999999999885,0.7438
0.028299999999999884,0.7366
0.028399999999999884,0.7358
0.028499999999999883,0.7462
0.028599999999999882,0.7438
0.028699999999999882,0.7535
0.02879999999999988,0.7470
0.02889999999999988,0.7462
0.02899999999999988,0.7495
0.02909999999999988,0.7486
0.02919999999999988,0.7527
0.029299999999999878,0.7591
0.029399999999999878,0.7559
0.029499999999999877,0.7551
0.029599999999999876,0.7688
0.029699999999999876,0.7664
0.029799999999999875,0.7648
0.029899999999999875,0.7672
0.029999999999999874,0.7656
0.030099999999999873,0.7760
0.030199999999999873,0.7728
0.030299999999999872,0.7809
0.03039999999999987,0.7744
0.03049999999999987,0.7785
0.03059999999999987,0.7720
0.03069999999999987,0.7809
0.03079999999999987,0.7833
0.03089999999999987,0.7736
0.030999999999999868,0.7857
0.031099999999999867,0.7865
0.031199999999999867,0.7857
0.03129999999999987,0.7970
0.03139999999999987,0.7994
0.031499999999999875,0.7914
0.03159999999999988,0.7994
0.03169999999999988,0.8034
0.031799999999999884,0.8034
0.03189999999999989,0.8051
0.03199999999999989,0.8042
0.03209999999999989,0.8010
0.032199999999999895,0.8075
0.0322999999999999,0.8099
0.0323999999999999,0.8171
0.032499999999999904,0.8107
0.03259999999999991,0.8147
0.03269999999999991,0.8155
0.03279999999999991,0.8091
0.032899999999999915,0.8252
0.03299999999999992,0.8171
0.03309999999999992,0.8276
0.033199999999999924,0.8228
0.03329999999999993,0.8284
0.03339999999999993,0.8292
0.03349999999999993,0.8349
0.033599999999999935,0.8236
0.03369999999999994,0.8292
0.03379999999999994,0.8252
0.033899999999999944,0.8333
0.03399999999999995,0.8413
0.03409999999999995,0.8413
0.03419999999999995,0.8357
0.034299999999999956,0.8502
0.03439999999999996,0.8445
0.03449999999999996,0.8397
0.034599999999999964,0.8437
0.03469999999999997,0.8486
0.03479999999999997,0.8429
0.03489999999999997,0.8566
0.034999999999999976,0.8470
0.03509999999999998,0.8550
0.03519999999999998,0.8615
0.035299999999999984,0.8647
0.03539999999999999,0.8711
0.03549999999999999,0.8639
0.03559999999999999,0.8631
0.035699999999999996,0.8744
0.0358,0.8655
0.0359,0.8631
0.036000000000000004,0.8703
0.03610000000000001,0.8784
0.03620000000000001,0.8840
0.03630000000000001,0.8776
0.036400000000000016,0.8752
0.03650000000000002,0.8784
0.03660000000000002,0.8711
0.036700000000000024,0.8881
0.03680000000000003,0.8768
0.03690000000000003,0.8792
0.03700000000000003,0.8808
0.037100000000000036,0.8889
0.03720000000000004,0.8937
0.03730000000000004,0.8905
0.037400000000000044,0.8961
0.03750000000000005,0.8969
0.03760000000000005,0.8921
0.03770000000000005,0.9058
0.037800000000000056,0.9018
0.03790000000000006,0.9058
0.03800000000000006,0.9066
0.038100000000000064,0.8977
0.03820000000000007,0.9034
0.03830000000000007,0.9058
0.03840000000000007,0.9026
0.038500000000000076,0.9082
0.03860000000000008,0.9122
0.03870000000000008,0.9219
0.038800000000000084,0.9090
0.03890000000000009,0.9163
0.03900000000000009,0.9235
0.03910000000000009,0.9243
0.039200000000000096,0.9179
0.0393000000000001,0.9179
0.0394000000000001,0.9171
0.039500000000000104,0.9227
0.03960000000000011,0.9171
0.03970000000000011,0.9292
0.03980000000000011,0.9324
0.039900000000000116,0.9243
0.04000000000000012,0.9340
0.04010000000000012,0.9275
0.040200000000000125,0.9421
0.04030000000000013,0.9412
0.04040000000000013,0.9292
0.04050000000000013,0.9485
0.040600000000000136,0.9396
0.04070000000000014,0.9445
0.04080000000000014,0.9453
0.040900000000000145,0.9461
0.04100000000000015,0.9493
0.04110000000000015,0.9558
0.04120000000000015,0.9437
0.041300000000000156,0.9493
0.04140000000000016,0.9525
0.04150000000000016,0.9582
0.041600000000000165,0.9541
0.04170000000000017,0.9638
0.04180000000000017,0.9558
0.04190000000000017,0.9662
0.042000000000000176,0.9662
0.04210000000000018,0.9509
0.04220000000000018,0.9662
0.042300000000000185,0.9678
0.04240000000000019,0.9614
0.04250000000000019,0.9678
0.04260000000000019,0.9703
0.042700000000000196,0.9678
0.0428000000000002,0.9686
0.0429000000000002,0.9727
0.043000000000000205,0.9775
0.04310000000000021,0.9751
0.04320000000000021,0.9735
0.04330000000000021,0.9791
0.043400000000000216,0.9856
0.04350000000000022,0.9775
0.04360000000000022,0.9735
0.043700000000000225,0.9815
0.04380000000000023,0.9840
0.04390000000000023,0.9815
0.04400000000000023,0.9872
0.044100000000000236,0.9872
0.04420000000000024,0.9912
0.04430000000000024,0.9960
0.044400000000000245,0.9952
0.04450000000000025,0.9952
0.04460000000000025,0.9960
0.04470000000000025,1.0065
0.044800000000000256,0.9904
0.04490000000000026,0.9968
0.04500000000000026,0.9952
0.045100000000000265,1.0049
0.04520000000000027,0.9993
0.04530000000000027,1.0033
0.045400000000000273,1.0065
0.045500000000000276,1.0057
0.04560000000000028,1.0025
0.04570000000000028,1.0114
0.045800000000000285,1.0186
0.04590000000000029,1.0105
0.04600000000000029,1.0202
0.046100000000000294,1.0194
0.046200000000000296,1.0194
0.0463000000000003,1.0130
0.0464000000000003,1.0251
0.046500000000000305,1.0154
0.04660000000000031,1.0275
0.04670000000000031,1.0202
0.046800000000000314,1.0073
0.046900000000000316,1.0218
0.04700000000000032,1.0315
0.04710000000000032,1.0275
0.047200000000000325,1.0202
0.04730000000000033,1.0331
0.04740000000000033,1.0251
0.047500000000000334,1.0331
0.047600000000000336,1.0291
0.04770000000000034,1.0339
0.04780000000000034,1.0428
0.047900000000000345,1.0355
0.04800000000000035,1.0379
0.04810000000000035,1.0444
0.048200000000000354,1.0444
0.04830000000000036,1.0396
0.04840000000000036,1.0484
0.04850000000000036,1.0388
0.048600000000000365,1.0371
0.04870000000000037,1.0549
0.04880000000000037,1.0476
0.048900000000000374,1.0525
0.04900000000000038,1.0492
0.04910000000000038,1.0428
0.04920000000000038,1.0516
0.049300000000000385,1.0581
0.04940000000000039,1.0492
0.04950000000000039,1.0557
0.049600000000000394,1.0645
0.0497000000000004,1.0613
0.0498000000000004,1.0597
0.0499000000000004,1.0662
0.050000000000000405,1.0589
0.05010000000000041,1.0718
0.05020000000000041,1.0637
0.050300000000000414,1.0686
0.05040000000000042,1.0726
0.05050000000000042,1.0670
0.05060000000000042,1.0734
0.050700000000000425,1.0782
0.05080000000000043,1.0694
0.05090000000000043,1.0662
0.051000000000000434,1.0734
0.05110000000000044,1.0799
0.05120000000000044,1.0839
0.05130000000000044,1.0782
0.051400000000000445,1.0742
0.05150000000000045,1.0871
0.05160000000000045,1.0758
0.051700000000000454,1.0847
0.05180000000000046,1.0815
0.05190000000000046,1.0815
0.05200000000000046,1.0936
0.052100000000000465,1.0895
0.05220000000000047,1.0895
0.05230000000000047,1.0919
0.052400000000000474,1.0887
0.05250000000000048,1.0968
0.05260000000000048,1.0944
0.05270000000000048,1.1040
0.052800000000000485,1.0903
0.05290000000000049,1.0992
0.05300000000000049,1.1008
0.053100000000000494,1.1000
0.0532000000000005,1.1016
0.0533000000000005,1.1008
0.0534000000000005,1.0936
0.053500000000000505,1.0968
0.05360000000000051,1.1048
0.05370000000000051,1.1113
0.053800000000000514,1.1032
0.05390000000000052,1.1056
0.05400000000000052,1.1073
0.05410000000000052,1.1121
0.054200000000000526,1.1145
0.05430000000000053,1.1137
0.05440000000000053,1.1121
0.054500000000000534,1.1129
0.05460000000000054,1.1210
0.05470000000000054,1.1185
0.05480000000000054,1.1185
0.054900000000000546,1.1177
0.05500000000000055,1.1274
0.05510000000000055,1.1274
0.055200000000000554,1.1234
0.05530000000000056,1.1290
0.05540000000000056,1.1290
0.05550000000000056,1.1306
0.055600000000000566,1.1201
0.05570000000000057,1.1193
0.05580000000000057,1.1274
0.055900000000000574,1.1330
0.05600000000000058,1.1403
0.05610000000000058,1.1306
0.05620000000000058,1.1322
0.056300000000000586,1.1282
0.05640000000000059,1.1419
0.05650000000000059,1.1298
0.056600000000000594,1.1355
0.0567000000000006,1.1347
0.0568000000000006,1.1371
0.0569000000000006,1.1548
0.057000000000000606,1.1427
0.05710000000000061,1.1459
0.05720000000000061,1.1387
0.057300000000000614,1.1419
0.05740000000000062,1.1443
0.05750000000000062,1.1419
0.05760000000000062,1.1427
0.057700000000000626,1.1524
0.05780000000000063,1.1443
0.05790000000000063,1.1484
0.058000000000000634,1.1540
0.05810000000000064,1.1564
0.05820000000000064,1.1572
0.05830000000000064,1.1508
0.058400000000000646,1.1572
0.05850000000000065,1.1669
0.05860000000000065,1.1484
0.058700000000000654,1.1564
0.05880000000000066,1.1612
0.05890000000000066,1.1556
0.05900000000000066,1.1612
0.059100000000000666,1.1604
0.05920000000000067,1.1629
0.05930000000000067,1.1532
0.059400000000000674,1.1685
0.05950000000000068,1.1741
0.05960000000000068,1.1588
0.05970000000000068,1.1725
0.059800000000000686,1.1661
0.05990000000000069,1.1725
0.06000000000000069,1.1749
0.060100000000000695,1.1677
0.0602000000000007,1.1661
0.0603000000000007,1.1717
0.0604000000000007,1.1822
0.060500000000000706,1.1758
0.06060000000000071,1.1725
0.06070000000000071,1.1749
0.060800000000000715,1.1790
0.06090000000000072,1.1814
0.06100000000000072,1.1766
0.06110000000000072,1.1806
0.061200000000000726,1.1870
0.06130000000000073,1.1862
0.06140000000000073,1.1814
0.061500000000000735,1.1895
0.06160000000000074,1.1806
0.06170000000000074,1.1903
0.06180000000000074,1.1838
0.061900000000000746,1.1991
0.06200000000000075,1.1927
0.06210000000000075,1.1870
0.062200000000000755,1.1919
0.06230000000000076,1.1846
0.06240000000000076,1.1951
0.06250000000000076,1.2007
0.06260000000000077,1.1999
0.06270000000000077,1.1919
0.06280000000000077,1.1983
0.06290000000000077,1.1959
0.06300000000000078,1.2015
0.06310000000000078,1.1991
0.06320000000000078,1.2080
0.06330000000000079,1.2015
0.06340000000000079,1.1959
0.06350000000000079,1.2064
0.0636000000000008,1.2048
0.0637000000000008,1.2056
0.0638000000000008,1.1975
0.0639000000000008,1.2032
0.0640000000000008,1.2056
0.06410000000000081,1.2023
0.06420000000000081,1.2177
0.06430000000000081,1.2225
0.06440000000000082,1.2168
0.06450000000000082,1.2152
0.06460000000000082,1.2160
0.06470000000000083,1.2160
0.06480000000000083,1.2048
0.06490000000000083,1.2209
0.06500000000000083,1.2217
0.06510000000000084,1.2225
0.06520000000000084,1.2128
0.06530000000000084,1.2112
0.06540000000000085,1.2249
0.06550000000000085,1.2177
0.06560000000000085,1.2225
0.06570000000000085,1.2225
0.06580000000000086,1.2201
0.06590000000000086,1.2257
0.06600000000000086,1.2338
0.06610000000000087,1.2322
0.06620000000000087,1.2346
0.06630000000000087,1.2330
0.06640000000000087,1.2338
0.06650000000000088,1.2354
0.06660000000000088,1.2362
0.06670000000000088,1.2330
0.06680000000000089,1.2281
0.06690000000000089,1.2265
0.06700000000000089,1.2314
0.0671000000000009,1.2354
0.0672000000000009,1.2338
0.0673000000000009,1.2297
0.0674000000000009,1.2362
0.0675000000000009,1.2410
0.06760000000000091,1.2426
0.06770000000000091,1.2402
0.06780000000000092,1.2394
0.06790000000000092,1.2442
0.06800000000000092,1.2459
0.06810000000000092,1.2410
0.06820000000000093,1.2410
0.06830000000000093,1.2515
0.06840000000000093,1.2442
0.06850000000000094,1.2547
0.06860000000000094,1.2563
0.06870000000000094,1.2362
0.06880000000000094,1.2378
0.06890000000000095,1.2507
0.06900000000000095,1.2515
0.06910000000000095,1.2499
0.06920000000000096,1.2547
0.06930000000000096,1.2555
0.06940000000000096,1.2539
0.06950000000000096,1.2636
0.06960000000000097,1.2507
0.06970000000000097,1.2604
0.06980000000000097,1.2507
0.06990000000000098,1.2612
0.07000000000000098,1.2620
0.07010000000000098,1.2555
0.07020000000000098,1.2588
0.07030000000000099,1.2547
0.07040000000000099,1.2571
0.07050000000000099,1.2644
0.070600000000001,1.2547
0.070700000000001,1.2700
0.070800000000001,1.2636
0.070900000000001,1.2716
0.071000000000001,1.2716
0.07110000000000101,1.2620
0.07120000000000101,1.2660
0.07130000000000102,1.2652
0.07140000000000102,1.2652
0.07150000000000102,1.2708
0.07160000000000102,1.2813
0.07170000000000103,1.2749
0.07180000000000103,1.2692
0.07190000000000103,1.2749
0.07200000000000104,1.2765
0.07210000000000104,1.2797
0.07220000000000104,1.2741
0.07230000000000104,1.2845
0.07240000000000105,1.2757
0.07250000000000105,1.2813
0.07260000000000105,1.2829
0.07270000000000106,1.2821
0.07280000000000106,1.2813
0.07290000000000106,1.2813
0.07300000000000106,1.2789
0.07310000000000107,1.2733
0.07320000000000107,1.2853
0.07330000000000107,1.2765
0.07340000000000108,1.2821
0.07350000000000108,1.2926
0.07360000000000108,1.2789
0.07370000000000108,1.2821
0.07380000000000109,1.2821
0.07390000000000109,1.2853
0.07400000000000109,1.2813
0.0741000000000011,1.2894
0.0742000000000011,1.2982
0.0743000000000011,1.2990
0.0744000000000011,1.2829
0.07450000000000111,1.2926
0.07460000000000111,1.2813
0.07470000000000111,1.3095
0.07480000000000112,1.2894
0.07490000000000112,1.2942
0.07500000000000112,1.2853
0.07510000000000112,1.2958
0.07520000000000113,1.3039
0.07530000000000113,1.2999
0.07540000000000113,1.2966
0.07550000000000114,1.3111
0.07560000000000114,1.3039
0.07570000000000114,1.3039
0.07580000000000114,1.2999
0.07590000000000115,1.3015
0.07600000000000115,1.3023
0.07610000000000115,1.2966
0.07620000000000116,1.3119
0.07630000000000116,1.3055
0.07640000000000116,1.3031
0.07650000000000116,1.3023
0.07660000000000117,1.3015
0.07670000000000117,1.3047
0.07680000000000117,1.3127
0.07690000000000118,1.2982
0.07700000000000118,1.3168
0.07710000000000118,1.3127
0.07720000000000118,1.3176
0.07730000000000119,1.3023
0.07740000000000119,1.3031
0.07750000000000119,1.3087
0.0776000000000012,1.3176
0.0777000000000012,1.3160
0.0778000000000012,1.3111
0.0779000000000012,1.3071
0.07800000000000121,1.3200
0.07810000000000121,1.3200
0.07820000000000121,1.3168
0.07830000000000122,1.3224
0.07840000000000122,1.3240
0.07850000000000122,1.3313
0.07860000000000122,1.3184
0.07870000000000123,1.3224
0.07880000000000123,1.3192
0.07890000000000123,1.3273
0.07900000000000124,1.3216
0.07910000000000124,1.3305
0.07920000000000124,1.3208
0.07930000000000124,1.3240
0.07940000000000125,1.3256
0.07950000000000125,1.3184
0.07960000000000125,1.3192
0.07970000000000126,1.3264
0.07980000000000126,1.3297
0.07990000000000126,1.3232
0.08000000000000126,1.3337
0.08010000000000127,1.3337
0.08020000000000127,1.3305
0.08030000000000127,1.3289
0.08040000000000128,1.3321
0.08050000000000128,1.3410
0.08060000000000128,1.3369
0.08070000000000128,1.3385
0.08080000000000129,1.3256
0.08090000000000129,1.3256
0.0810000000000013,1.3385
0.0811000000000013,1.3337
0.0812000000000013,1.3353
0.0813000000000013,1.3426
0.0814000000000013,1.3305
0.08150000000000131,1.3369
0.08160000000000131,1.3361
0.08170000000000131,1.3450
0.08180000000000132,1.3385
0.08190000000000132,1.3426
0.08200000000000132,1.3490
0.08210000000000132,1.3369
0.08220000000000133,1.3418
0.08230000000000133,1.3450
0.08240000000000133,1.3442
0.08250000000000134,1.3401
0.08260000000000134,1.3498
0.08270000000000134,1.3514
0.08280000000000134,1.3401
0.08290000000000135,1.3530
0.08300000000000135,1.3393
0.08310000000000135,1.3506
0.08320000000000136,1.3458
0.08330000000000136,1.3498
0.08340000000000136,1.3514
0.08350000000000136,1.3530
0.08360000000000137,1.3490
0.08370000000000137,1.3595
0.08380000000000137,1.3530
0.08390000000000138,1.3530
0.08400000000000138,1.3587
0.08410000000000138,1.3603
0.08420000000000138,1.3538
0.08430000000000139,1.3587
0.08440000000000139,1.3603
0.0845000000000014,1.3627
0.0846000000000014,1.3595
0.0847000000000014,1.3651
0.0848000000000014,1.3619
0.0849000000000014,1.3619
0.08500000000000141,1.3563
0.08510000000000141,1.3651
0.08520000000000141,1.3547
0.08530000000000142,1.3619
0.08540000000000142,1.3611
0.08550000000000142,1.3627
0.08560000000000142,1.3667
0.08570000000000143,1.3684
0.08580000000000143,1.3675
0.08590000000000143,1.3684
0.08600000000000144,1.3643
0.08610000000000144,1.3611
0.08620000000000144,1.3595
0.08630000000000144,1.3748
0.08640000000000145,1.3659
0.08650000000000145,1.3708
0.08660000000000145,1.3692
0.08670000000000146,1.3740
0.08680000000000146,1.3675
0.08690000000000146,1.3748
0.08700000000000147,1.3804
0.08710000000000147,1.3684
0.08720000000000147,1.3780
0.08730000000000147,1.3724
0.08740000000000148,1.3700
0.08750000000000148,1.3748
0.08760000000000148,1.3716
0.08770000000000149,1.3788
0.08780000000000149,1.3772
0.08790000000000149,1.3667
0.0880000000000015,1.3829
0.0881000000000015,1.3675
0.0882000000000015,1.3732
0.0883000000000015,1.3925
0.0884000000000015,1.3716
0.08850000000000151,1.3740
0.08860000000000151,1.3821
0.08870000000000151,1.3748
0.08880000000000152,1.3780
0.08890000000000152,1.3788
0.08900000000000152,1.3837
0.08910000000000153,1.3804
0.08920000000000153,1.3853
0.08930000000000153,1.3788
0.08940000000000153,1.3821
0.08950000000000154,1.3845
0.08960000000000154,1.3893
0.08970000000000154,1.3869
0.08980000000000155,1.3837
0.08990000000000155,1.3941
0.09000000000000155,1.3812
0.09010000000000155,1.3933
0.09020000000000156,1.3845
0.09030000000000156,1.3885
0.09040000000000156,1.3933
0.09050000000000157,1.3853
0.09060000000000157,1.3941
0.09070000000000157,1.3974
0.09080000000000157,1.3845
0.09090000000000158,1.3925
0.09100000000000158,1.3869
0.09110000000000158,1.3893
0.09120000000000159,1.3949
0.09130000000000159,1.3853
0.09140000000000159,1.3941
0.0915000000000016,1.3966
0.0916000000000016,1.4022
0.0917000000000016,1.4062
0.0918000000000016,1.3917
0.0919000000000016,1.3949
0.09200000000000161,1.3933
0.09210000000000161,1.4046
0.09220000000000161,1.3998
0.09230000000000162,1.3998
0.09240000000000162,1.3941
0.09250000000000162,1.4086
0.09260000000000163,1.3901
0.09270000000000163,1.4038
0.09280000000000163,1.4070
0.09290000000000163,1.4143
0.09300000000000164,1.3958
0.09310000000000164,1.4062
0.09320000000000164,1.3998
0.09330000000000165,1.4006
0.09340000000000165,1.3998
0.09350000000000165,1.4062
0.09360000000000165,1.4078
0.09370000000000166,1.4086
0.09380000000000166,1.4103
0.09390000000000166,1.4143
0.09400000000000167,1.4119
0.09410000000000167,1.4046
0.09420000000000167,1.4014
0.09430000000000167,1.4054
0.09440000000000168,1.4070
0.09450000000000168,1.4183
0.09460000000000168,1.4103
0.09470000000000169,1.4175
0.09480000000000169,1.4086
0.09490000000000169,1.4151
0.0950000000000017,1.4078
0.0951000000000017,1.4135
0.0952000000000017,1.4207
0.0953000000000017,1.4143
0.0954000000000017,1.4143
0.09550000000000171,1.4175
0.09560000000000171,1.4240
0.09570000000000171,1.4159
0.09580000000000172,1.4119
0.09590000000000172,1.4143
0.09600000000000172,1.4240
0.09610000000000173,1.4199
0.09620000000000173,1.4167
0.09630000000000173,1.4248
0.09640000000000173,1.4135
0.09650000000000174,1.4207
0.09660000000000174,1.4183
0.09670000000000174,1.4207
0.09680000000000175,1.4183
0.09690000000000175,1.4054
0.09700000000000175,1.4288
0.09710000000000175,1.4304
0.09720000000000176,1.4240
0.09730000000000176,1.4328
0.09740000000000176,1.4248
0.09750000000000177,1.4240
0.09760000000000177,1.4223
0.09770000000000177,1.4248
0.09780000000000177,1.4215
0.09790000000000178,1.4207
0.09800000000000178,1.4336
0.09810000000000178,1.4232
0.09820000000000179,1.4320
0.09830000000000179,1.4191
0.09840000000000179,1.4280
0.0985000000000018,1.4240
0.0986000000000018,1.4328
0.0987000000000018,1.4272
0.0988000000000018,1.4304
0.0989000000000018,1.4368
0.09900000000000181,1.4368
0.09910000000000181,1.4320
0.09920000000000181,1.4272
0.09930000000000182,1.4385
0.09940000000000182,1.4368
0.09950000000000182,1.4288
0.09960000000000183,1.4328
0.09970000000000183,1.4417
0.09980000000000183,1.4385
0.09990000000000183,1.4280
0.10000000000000184,1.4320
0.10010000000000184,1.4401
0.10020000000000184,1.4368
0.10030000000000185,1.4360
0.10040000000000185,1.4425
0.10050000000000185,1.4360
0.10060000000000185,1.4368
0.10070000000000186,1.4288
0.10080000000000186,1.4449
0.10090000000000186,1.4385
0.10100000000000187,1.4296
0.10110000000000187,1.4320
0.10120000000000187,1.4368
0.10130000000000187,1.4465
0.10140000000000188,1.4417
0.10150000000000188,1.4385
0.10160000000000188,1.4352
0.10170000000000189,1.4417
0.10180000000000189,1.4409
0.10190000000000189,1.4368
0.1020000000000019,1.4344
0.1021000000000019,1.4489
0.1022000000000019,1.4538
0.1023000000000019,1.4505
0.1024000000000019,1.4433
0.10250000000000191,1.4449
0.10260000000000191,1.4457
0.10270000000000191,1.4497
0.10280000000000192,1.4505
0.10290000000000192,1.4562
0.10300000000000192,1.4433
0.10310000000000193,1.4449
0.10320000000000193,1.4505
0.10330000000000193,1.4457
0.10340000000000193,1.4497
0.10350000000000194,1.4473
0.10360000000000194,1.4489
0.10370000000000194,1.4457
0.10380000000000195,1.4554
0.10390000000000195,1.4441
0.10400000000000195,1.4505
0.10410000000000195,1.4546
0.10420000000000196,1.4505
0.10430000000000196,1.4570
0.10440000000000196,1.4505
0.10450000000000197,1.4505
0.10460000000000197,1.4626
0.10470000000000197,1.4626
0.10480000000000197,1.4514
0.10490000000000198,1.4546
0.10500000000000198,1.4610
0.10510000000000198,1.4667
0.10520000000000199,1.4659
0.10530000000000199,1.4497
0.10540000000000199,1.4505
0.105500000000002,1.4610
0.105600000000002,1.4594
0.105700000000002,1.4578
0.105800000000002,1.4546
0.105900000000002,1.4562
0.10600000000000201,1.4554
0.10610000000000201,1.4634
0.10620000000000202,1.4626
0.10630000000000202,1.4586
0.10640000000000202,1.4562
0.10650000000000202,1.4570
0.10660000000000203,1.4626
0.10670000000000203,1.4642
0.10680000000000203,1.4642
0.10690000000000204,1.4642
0.10700000000000204,1.4618
0.10710000000000204,1.4594
0.10720000000000204,1.4497
0.10730000000000205,1.4610
0.10740000000000205,1.4602
0.10750000000000205,1.4659
0.10760000000000206,1.4586
0.10770000000000206,1.4675
0.10780000000000206,1.4602
0.10790000000000206,1.4739
0.10800000000000207,1.4594
0.10810000000000207,1.4675
0.10820000000000207,1.4514
0.10830000000000208,1.4683
0.10840000000000208,1.4667
0.10850000000000208,1.4683
0.10860000000000208,1.4715
0.10870000000000209,1.4659
0.10880000000000209,1.4683
0.10890000000000209,1.4779
0.1090000000000021,1.4651
0.1091000000000021,1.4667
0.1092000000000021,1.4683
0.1093000000000021,1.4763
0.1094000000000021,1.4771
0.10950000000000211,1.4707
0.10960000000000211,1.4675
0.10970000000000212,1.4707
0.10980000000000212,1.4723
0.10990000000000212,1.4683
0.11000000000000212,1.4707
0.11010000000000213,1.4820
0.11020000000000213,1.4739
0.11030000000000213,1.4796
0.11040000000000214,1.4731
0.11050000000000214,1.4739
0.11060000000000214,1.4788
0.11070000000000214,1.4747
0.11080000000000215,1.4739
0.11090000000000215,1.4796
0.11100000000000215,1.4771
0.11110000000000216,1.4659
0.11120000000000216,1.4820
0.11130000000000216,1.4755
0.11140000000000216,1.4788
0.11150000000000217,1.4723
0.11160000000000217,1.4900
0.11170000000000217,1.4820
0.11180000000000218,1.4715
0.11190000000000218,1.4844
0.11200000000000218,1.4844
0.11210000000000218,1.4836
0.11220000000000219,1.4908
0.11230000000000219,1.4755
0.11240000000000219,1.4755
0.1125000000000022,1.4796
0.1126000000000022,1.4804
0.1127000000000022,1.4796
0.1128000000000022,1.4852
0.1129000000000022,1.4892
0.11300000000000221,1.4916
0.11310000000000221,1.4900
0.11320000000000222,1.4860
0.11330000000000222,1.4820
0.11340000000000222,1.4852
0.11350000000000222,1.4836
0.11360000000000223,1.4820
0.11370000000000223,1.4836
0.11380000000000223,1.4788
0.11390000000000224,1.4892
0.11400000000000224,1.4876
0.11410000000000224,1.4852
0.11420000000000224,1.4876
0.11430000000000225,1.4892
0.11440000000000225,1.4828
0.11450000000000225,1.4852
0.11460000000000226,1.4900
0.11470000000000226,1.4868
0.11480000000000226,1.4900
0.11490000000000226,1.4925
0.11500000000000227,1.4965
0.11510000000000227,1.4916
0.11520000000000227,1.5005
0.11530000000000228,1.4916
0.11540000000000228,1.4957
0.11550000000000228,1.4949
0.11560000000000228,1.4916
0.11570000000000229,1.4908
0.11580000000000229,1.5021
0.11590000000000229,1.4908
0.1160000000000023,1.4900
0.1161000000000023,1.4933
0.1162000000000023,1.4876
0.1163000000000023,1.4989
0.11640000000000231,1.4957
0.11650000000000231,1.5045
0.11660000000000231,1.4933
0.11670000000000232,1.4989
0.11680000000000232,1.4989
0.11690000000000232,1.4941
0.11700000000000232,1.4933
0.11710000000000233,1.4916
0.11720000000000233,1.4957
0.11730000000000233,1.4973
0.11740000000000234,1.4997
0.11750000000000234,1.5013
0.11760000000000234,1.4989
0.11770000000000234,1.4997
0.11780000000000235,1.4941
0.11790000000000235,1.5029
0.11800000000000235,1.4957
0.11810000000000236,1.4892
0.11820000000000236,1.4981
0.11830000000000236,1.4973
0.11840000000000236,1.5053
0.11850000000000237,1.5062
0.11860000000000237,1.5005
0.11870000000000237,1.5021
0.11880000000000238,1.5062
0.11890000000000238,1.4989
0.11900000000000238,1.5070
0.11910000000000238,1.5102
0.11920000000000239,1.5021
0.11930000000000239,1.5037
0.1194000000000024,1.5045
0.1195000000000024,1.5094
0.1196000000000024,1.5110
0.1197000000000024,1.4997
0.1198000000000024,1.4989
0.11990000000000241,1.5021
0.12000000000000241,1.5118
0.12010000000000241,1.5150
0.12020000000000242,1.5062
0.12030000000000242,1.5166
0.12040000000000242,1.5045
0.12050000000000242,1.5102
0.12060000000000243,1.5158
0.12070000000000243,1.5118
0.12080000000000243,1.5134
0.12090000000000244,1.5078
0.12100000000000244,1.5134
0.12110000000000244,1.5062
0.12120000000000244,1.5134
0.12130000000000245,1.5078
0.12140000000000245,1.5013
0.12150000000000245,1.5142
0.12160000000000246,1.5142
0.12170000000000246,1.5021
0.12180000000000246,1.5134
0.12190000000000246,1.5182
0.12200000000000247,1.5223
0.12210000000000247,1.5094
0.12220000000000247,1.5094
0.12230000000000248,1.5053
0.12240000000000248,1.5110
0.12250000000000248,1.5182
0.12260000000000248,1.5126
0.12270000000000249,1.5231
0.12280000000000249,1.5166
0.1229000000000025,1.5150
0.1230000000000025,1.5142
0.1231000000000025,1.5190
0.1232000000000025,1.5199
0.1233000000000025,1.5094
0.12340000000000251,1.5094
0.12350000000000251,1.5134
0.12360000000000251,1.5190
0.12370000000000252,1.5199
0.12380000000000252,1.5279
0.12390000000000252,1.5223
0.12400000000000252,1.5102
0.12410000000000253,1.5287
0.12420000000000253,1.5062
0.12430000000000253,1.5263
0.12440000000000254,1.5231
0.12450000000000254,1.5247
0.12460000000000254,1.5158
0.12470000000000254,1.5166
0.12480000000000255,1.5263
0.12490000000000255,1.5174
0.12500000000000255,1.5182
0.12510000000000254,1.5102
0.12520000000000253,1.5247
0.12530000000000252,1.5142
0.1254000000000025,1.5190
0.1255000000000025,1.5215
0.1256000000000025,1.5223
0.12570000000000248,1.5182
0.12580000000000247,1.5287
0.12590000000000245,1.5215
0.12600000000000244,1.5247
0.12610000000000243,1.5158
0.12620000000000242,1.5279
0.1263000000000024,1.5319
0.1264000000000024,1.5303
0.1265000000000024,1.5271
0.12660000000000238,1.5190
0.12670000000000237,1.5158
0.12680000000000236,1.5336
0.12690000000000234,1.5255
0.12700000000000233,1.5287
0.12710000000000232,1.5319
0.1272000000000023,1.5207
0.1273000000000023,1.5327
0.1274000000000023,1.5303
0.12750000000000228,1.5287
0.12760000000000227,1.5352
0.12770000000000226,1.5239
0.12780000000000225,1.5199
0.12790000000000223,1.5271
0.12800000000000222,1.5215
0.1281000000000022,1.5336
0.1282000000000022,1.5287
0.1283000000000022,1.5295
0.12840000000000218,1.5327
0.12850000000000217,1.5336
0.12860000000000216,1.5336
0.12870000000000215,1.5255
0.12880000000000214,1.5255
0.12890000000000212,1.5215
0.1290000000000021,1.5311
0.1291000000000021,1.5303
0.1292000000000021,1.5263
0.12930000000000208,1.5247
0.12940000000000207,1.5279
0.12950000000000206,1.5303
0.12960000000000205,1.5271
0.12970000000000204,1.5400
0.12980000000000202,1.5384
0.129900000000002,1.5416
0.130000000000002,1.5327
0.130100000000002,1.5408
0.13020000000000198,1.5352
0.13030000000000197,1.5279
0.13040000000000196,1.5384
0.13050000000000195,1.5392
0.13060000000000194,1.5255
0.13070000000000193,1.5376
0.13080000000000191,1.5416
0.1309000000000019,1.5424
0.1310000000000019,1.5360
0.13110000000000188,1.5384
0.13120000000000187,1.5360
0.13130000000000186,1.5360
0.13140000000000185,1.5327
0.13150000000000184,1.5384
0.13160000000000183,1.5368
0.13170000000000182,1.5336
0.1318000000000018,1.5384
0.1319000000000018,1.5287
0.13200000000000178,1.5400
0.13210000000000177,1.5352
0.13220000000000176,1.5352
0.13230000000000175,1.5489
0.13240000000000174,1.5448
0.13250000000000173,1.5416
0.13260000000000172,1.5352
0.1327000000000017,1.5384
0.1328000000000017,1.5352
0.13290000000000168,1.5481
0.13300000000000167,1.5384
0.13310000000000166,1.5400
0.13320000000000165,1.5440
0.13330000000000164,1.5400
0.13340000000000163,1.5368
0.13350000000000162,1.5440
0.1336000000000016,1.5400
0.1337000000000016,1.5456
0.13380000000000158,1.5400
0.13390000000000157,1.5513
0.13400000000000156,1.5392
0.13410000000000155,1.5416
0.13420000000000154,1.5464
0.13430000000000153,1.5473
0.13440000000000152,1.5448
0.1345000000000015,1.5368
0.1346000000000015,1.5521
0.13470000000000149,1.5432
0.13480000000000147,1.5440
0.13490000000000146,1.5489
0.13500000000000145,1.5448
0.13510000000000144,1.5481
0.13520000000000143,1.5456
0.13530000000000142,1.5513
0.1354000000000014,1.5513
0.1355000000000014,1.5400
0.13560000000000139,1.5424
0.13570000000000138,1.5440
0.13580000000000136,1.5384
0.13590000000000135,1.5416
0.13600000000000134,1.5416
0.13610000000000133,1.5505
0.13620000000000132,1.5432
0.1363000000000013,1.5497
0.1364000000000013,1.5464
0.1365000000000013,1.5505
0.13660000000000128,1.5473
0.13670000000000126,1.5432
0.13680000000000125,1.5464
0.13690000000000124,1.5464
0.13700000000000123,1.5408
0.13710000000000122,1.5440
0.1372000000000012,1.5481
0.1373000000000012,1.5553
0.1374000000000012,1.5481
0.13750000000000118,1.5464
0.13760000000000117,1.5473
0.13770000000000115,1.5497
0.13780000000000114,1.5440
0.13790000000000113,1.5545
0.13800000000000112,1.5545
0.1381000000000011,1.5529
0.1382000000000011,1.5481
0.1383000000000011,1.5529
0.13840000000000108,1.5505
0.13850000000000107,1.5529
0.13860000000000106,1.5545
0.13870000000000104,1.5440
0.13880000000000103,1.5545
0.13890000000000102,1.5577
0.139000000000001,1.5585
0.139100000000001,1.5497
0.139200000000001,1.5521
0.13930000000000098,1.5440
0.13940000000000097,1.5481
0.13950000000000096,1.5497
0.13960000000000095,1.5448
0.13970000000000093,1.5593
0.13980000000000092,1.5537
0.1399000000000009,1.5626
0.1400000000000009,1.5537
0.1401000000000009,1.5537
0.14020000000000088,1.5513
0.14030000000000087,1.5585
0.14040000000000086,1.5473
0.14050000000000085,1.5497
0.14060000000000084,1.5585
0.14070000000000082,1.5513
0.1408000000000008,1.5545
0.1409000000000008,1.5473
0.1410000000000008,1.5505
0.14110000000000078,1.5569
0.14120000000000077,1.5577
0.14130000000000076,1.5618
0.14140000000000075,1.5513
0.14150000000000074,1.5513
0.14160000000000073,1.5618
0.14170000000000071,1.5553
0.1418000000000007,1.5577
0.1419000000000007,1.5521
0.14200000000000068,1.5561
0.14210000000000067,1.5601
0.14220000000000066,1.5585
0.14230000000000065,1.5601
0.14240000000000064,1.5521
0.14250000000000063,1.5569
0.14260000000000062,1.5658
0.1427000000000006,1.5489
0.1428000000000006,1.5553
0.14290000000000058,1.5601
0.14300000000000057,1.5610
0.14310000000000056,1.5601
0.14320000000000055,1.5545
0.14330000000000054,1.5601
0.14340000000000053,1.5674
0.14350000000000052,1.5561
0.1436000000000005,1.5626
0.1437000000000005,1.5674
0.14380000000000048,1.5682
0.14390000000000047,1.5553
0.14400000000000046,1.5529
0.14410000000000045,1.5569
0.14420000000000044,1.5682
0.14430000000000043,1.5569
0.14440000000000042,1.5642
0.1445000000000004,1.5642
0.1446000000000004,1.5658
0.14470000000000038,1.5666
0.14480000000000037,1.5593
0.14490000000000036,1.5577
0.14500000000000035,1.5577
0.14510000000000034,1.5747
0.14520000000000033,1.5529
0.14530000000000032,1.5690
0.1454000000000003,1.5553
0.1455000000000003,1.5690
0.14560000000000028,1.5593
0.14570000000000027,1.5618
0.14580000000000026,1.5666
0.14590000000000025,1.5698
0.14600000000000024,1.5658
0.14610000000000023,1.5634
0.14620000000000022,1.5690
0.1463000000000002,1.5658
0.1464000000000002,1.5714
0.14650000000000019,1.5690
0.14660000000000017,1.5561
0.14670000000000016,1.5626
0.14680000000000015,1.5674
0.14690000000000014,1.5634
0.14700000000000013,1.5714
0.14710000000000012,1.5698
0.1472000000000001,1.5682
0.1473000000000001,1.5626
0.1474000000000001,1.5666
0.14750000000000008,1.5545
0.14760000000000006,1.5706
0.14770000000000005,1.5787
0.14780000000000004,1.5714
0.14790000000000003,1.5658
0.14800000000000002,1.5593
0.1481,1.5747
0.1482,1.5706
0.1483,1.5650
0.14839999999999998,1.5763
0.14849999999999997,1.5666
0.14859999999999995,1.5755
0.14869999999999994,1.5698
0.14879999999999993,1.5634
0.14889999999999992,1.5682
0.1489999999999999,1.5722
0.1490999999999999,1.5706
0.1491999999999999,1.5730
0.14929999999999988,1.5706
0.14939999999999987,1.5682
0.14949999999999986,1.5674
0.14959999999999984,1.5706
0.14969999999999983,1.5755
0.14979999999999982,1.5722
0.1498999999999998,1.5642
0.1499999999999998,1.5722
0.1500999999999998,1.5730
0.15019999999999978,1.5690
0.15029999999999977,1.5706
0.15039999999999976,1.5763
0.15049999999999975,1.5763
0.15059999999999973,1.5787
0.15069999999999972,1.5626
0.1507999999999997,1.5738
0.1508999999999997,1.5779
0.1509999999999997,1.5634
0.15109999999999968,1.5674
0.15119999999999967,1.5771
0.15129999999999966,1.5803
0.15139999999999965,1.5803
0.15149999999999963,1.5787
0.15159999999999962,1.5722
0.1516999999999996,1.5803
0.1517999999999996,1.5666
0.1518999999999996,1.5706
0.15199999999999958,1.5827
0.15209999999999957,1.5803
0.15219999999999956,1.5634
0.15229999999999955,1.5722
0.15239999999999954,1.5803
0.15249999999999952,1.5722
0.1525999999999995,1.5674
0.1526999999999995,1.5787
0.1527999999999995,1.5714
0.15289999999999948,1.5755
0.15299999999999947,1.5674
0.15309999999999946,1.5819
0.15319999999999945,1.5730
0.15329999999999944,1.5859
0.15339999999999943,1.5875
0.15349999999999941,1.5771
0.1535999999999994,1.5706
0.1536999999999994,1.5779
0.15379999999999938,1.5884
0.15389999999999937,1.5867
0.15399999999999936,1.5779
0.15409999999999935,1.5819
0.15419999999999934,1.5755
0.15429999999999933,1.5787
0.15439999999999932,1.5738
0.1544999999999993,1.5827
0.1545999999999993,1.5835
0.15469999999999928,1.5650
0.15479999999999927,1.5859
0.15489999999999926,1.5892
0.15499999999999925,1.5738
0.15509999999999924,1.5835
0.15519999999999923,1.5835
0.15529999999999922,1.5884
0.1553999999999992,1.5827
0.1554999999999992,1.5827
0.15559999999999918,1.5916
0.15569999999999917,1.5875
0.15579999999999916,1.5795
0.15589999999999915,1.5779
0.15599999999999914,1.5795
0.15609999999999913,1.5859
0.15619999999999912,1.5867
0.1562999999999991,1.5755
0.1563999999999991,1.5787
0.15649999999999908,1.5819
0.15659999999999907,1.5771
0.15669999999999906,1.5884
0.15679999999999905,1.5755
0.15689999999999904,1.5787
0.15699999999999903,1.5803
0.15709999999999902,1.5771
0.157199999999999,1.5851
0.157299999999999,1.5884
0.15739999999999899,1.5819
0.15749999999999897,1.5771
0.15759999999999896,1.5867
0.15769999999999895,1.5859
0.15779999999999894,1.5908
0.15789999999999893,1.5851
0.15799999999999892,1.5851
0.1580999999999989,1.5900
0.1581999999999989,1.5867
0.15829999999999889,1.5811
0.15839999999999888,1.5835
0.15849999999999886,1.5884
0.15859999999999885,1.5916
0.15869999999999884,1.5803
0.15879999999999883,1.5811
0.15889999999999882,1.5924
0.1589999999999988,1.5900
0.1590999999999988,1.5787
0.1591999999999988,1.5867
0.15929999999999878,1.5827
0.15939999999999876,1.5763
0.15949999999999875,1.5811
0.15959999999999874,1.5859
0.15969999999999873,1.5851
0.15979999999999872,1.5875
0.1598999999999987,1.5948
0.1599999999999987,1.5803
0.1600999999999987,1.5771
0.16019999999999868,1.5908
0.16029999999999867,1.5795
0.16039999999999865,1.5843
0.16049999999999864,1.5811
0.16059999999999863,1.5867
0.16069999999999862,1.5819
0.1607999999999986,1.5956
0.1608999999999986,1.5908
0.1609999999999986,1.5835
0.16109999999999858,1.5940
0.16119999999999857,1.5884
0.16129999999999856,1.5843
0.16139999999999854,1.5859
0.16149999999999853,1.5940
0.16159999999999852,1.5916
0.1616999999999985,1.5924
0.1617999999999985,1.5843
0.1618999999999985,1.5884
0.16199999999999848,1.5980
0.16209999999999847,1.5932
0.16219999999999846,1.5827
0.16229999999999845,1.5924
0.16239999999999843,1.5875
0.16249999999999842,1.5980
0.1625999999999984,1.5908
0.1626999999999984,1.5867
0.1627999999999984,1.5956
0.16289999999999838,1.5916
0.16299999999999837,1.5956
0.16309999999999836,1.5956
0.16319999999999835,1.5859
0.16329999999999834,1.5948
0.16339999999999832,1.5956
0.1634999999999983,1.6021
0.1635999999999983,1.5900
0.1636999999999983,1.5940
0.16379999999999828,1.5988
0.16389999999999827,1.6021
0.16399999999999826,1.5948
0.16409999999999825,1.5859
0.16419999999999824,1.5932
0.16429999999999823,1.5884
0.16439999999999821,1.6012
0.1644999999999982,1.5948
0.1645999999999982,1.5916
0.16469999999999818,1.5916
0.16479999999999817,1.5940
0.16489999999999816,1.6004
0.16499999999999815,1.5843
0.16509999999999814,1.5835
0.16519999999999813,1.5924
0.16529999999999812,1.5892
0.1653999999999981,1.5932
0.1654999999999981,1.6029
0.16559999999999808,1.5916
0.16569999999999807,1.5924
0.16579999999999806,1.5940
0.16589999999999805,1.5867
0.16599999999999804,1.5867
0.16609999999999803,1.5884
0.16619999999999802,1.5972
0.166299999999998,1.5980
0.166399999999998,1.6029
0.16649999999999798,1.5996
0.16659999999999797,1.5980
0.16669999999999796,1.5964
0.16679999999999795,1.5980
0.16689999999999794,1.6037
0.16699999999999793,1.5900
0.16709999999999792,1.5884
0.1671999999999979,1.5875
0.1672999999999979,1.5940
0.16739999999999788,1.5851
0.16749999999999787,1.5924
0.16759999999999786,1.5916
0.16769999999999785,1.5940
0.16779999999999784,1.5924
0.16789999999999783,1.5892
0.16799999999999782,1.5972
0.1680999999999978,1.5980
0.1681999999999978,1.5884
0.16829999999999778,1.5940
0.16839999999999777,1.5980
0.16849999999999776,1.5940
0.16859999999999775,1.5964
0.16869999999999774,1.6037
0.16879999999999773,1.6004
0.16889999999999772,1.5996
0.1689999999999977,1.5980
0.1690999999999977,1.5932
0.16919999999999769,1.5916
0.16929999999999767,1.5940
0.16939999999999766,1.5916
0.16949999999999765,1.5932
0.16959999999999764,1.6029
0.16969999999999763,1.5940
0.16979999999999762,1.6004
0.1698999999999976,1.6037
0.1699999999999976,1.5940
0.1700999999999976,1.5964
0.17019999999999758,1.5964
0.17029999999999756,1.6061
0.17039999999999755,1.5996
0.17049999999999754,1.6029
0.17059999999999753,1.6045
0.17069999999999752,1.5908
0.1707999999999975,1.5996
0.1708999999999975,1.5980
0.1709999999999975,1.5932
0.17109999999999748,1.6012
0.17119999999999747,1.5988
0.17129999999999745,1.5924
0.17139999999999744,1.6037
0.17149999999999743,1.6117
0.17159999999999742,1.5916
0.1716999999999974,1.6029
0.1717999999999974,1.5956
0.1718999999999974,1.5988
0.17199999999999738,1.6012
0.17209999999999737,1.6012
0.17219999999999736,1.5940
0.17229999999999734,1.5956
0.17239999999999733,1.5924
0.17249999999999732,1.6093
0.1725999999999973,1.6141
0.1726999999999973,1.5980
0.1727999999999973,1.6069
0.17289999999999728,1.5924
0.17299999999999727,1.5996
0.17309999999999726,1.6021
0.17319999999999725,1.6053
0.17329999999999723,1.6004
0.17339999999999722,1.6012
0.1734999999999972,1.6029
0.1735999999999972,1.5996
0.1736999999999972,1.6069
0.17379999999999718,1.6029
0.17389999999999717,1.5948
0.17399999999999716,1.6029
0.17409999999999715,1.5988
0.17419999999999713,1.6012
0.17429999999999712,1.6069
0.1743999999999971,1.5988
0.1744999999999971,1.6045
0.1745999999999971,1.6077
0.17469999999999708,1.5948
0.17479999999999707,1.6045
0.17489999999999706,1.6149
0.17499999999999705,1.5996
0.17509999999999704,1.6069
0.17519999999999702,1.6021
0.175299999999997,1.5964
0.175399999999997,1.6069
0.175499999999997,1.6053
0.17559999999999698,1.5980
0.17569999999999697,1.6012
0.17579999999999696,1.6085
0.17589999999999695,1.5980
0.17599999999999694,1.6053
0.17609999999999693,1.6045
0.17619999999999691,1.5988
0.1762999999999969,1.6069
0.1763999999999969,1.6085
0.17649999999999688,1.6125
0.17659999999999687,1.6045
0.17669999999999686,1.6004
0.17679999999999685,1.6069
0.17689999999999684,1.6109
0.17699999999999683,1.6045
0.17709999999999682,1.6085
0.1771999999999968,1.6109
0.1772999999999968,1.6149
0.17739999999999678,1.6133
0.17749999999999677,1.6109
0.17759999999999676,1.6101
0.17769999999999675,1.6125
0.17779999999999674,1.6029
0.17789999999999673,1.6182
0.17799999999999672,1.6053
0.1780999999999967,1.6085
0.1781999999999967,1.6012
0.17829999999999668,1.6093
0.17839999999999667,1.6004
0.17849999999999666,1.6109
0.17859999999999665,1.6053
0.17869999999999664,1.6021
0.17879999999999663,1.5980
0.17889999999999662,1.6085
0.1789999999999966,1.6061
0.1790999999999966,1.6045
0.17919999999999658,1.6077
0.17929999999999657,1.6077
0.17939999999999656,1.6133
0.17949999999999655,1.6109
0.17959999999999654,1.6077
0.17969999999999653,1.6093
0.17979999999999652,1.6101
0.1798999999999965,1.6166
0.1799999999999965,1.6109
0.18009999999999649,1.6101
0.18019999999999647,1.6061
0.18029999999999646,1.6061
0.18039999999999645,1.6085
0.18049999999999644,1.6117
0.18059999999999643,1.6093
0.18069999999999642,1.6109
0.1807999999999964,1.6133
0.1808999999999964,1.6037
0.18099999999999639,1.6125
0.18109999999999637,1.6101
0.18119999999999636,1.6141
0.18129999999999635,1.6069
0.18139999999999634,1.6109
0.18149999999999633,1.6117
0.18159999999999632,1.6077
0.1816999999999963,1.6085
0.1817999999999963,1.6141
0.1818999999999963,1.6093
0.18199999999999628,1.6085
0.18209999999999626,1.6029
0.18219999999999625,1.6085
0.18229999999999624,1.6109
0.18239999999999623,1.6004
0.18249999999999622,1.6149
0.1825999999999962,1.6174
0.1826999999999962,1.6053
0.1827999999999962,1.6214
0.18289999999999618,1.6125
0.18299999999999617,1.6012
0.18309999999999615,1.6093
0.18319999999999614,1.6109
0.18329999999999613,1.6053
0.18339999999999612,1.6230
0.1834999999999961,1.6085
0.1835999999999961,1.6045
0.1836999999999961,1.6093
0.18379999999999608,1.6012
0.18389999999999607,1.6133
0.18399999999999606,1.6158
0.18409999999999604,1.6125
0.18419999999999603,1.6117
0.18429999999999602,1.6101
0.184399999999996,1.6061
0.184499999999996,1.6117
0.184599999999996,1.6158
0.18469999999999598,1.6190
0.18479999999999597,1.6149
0.18489999999999596,1.6069
0.18499999999999595,1.6037
0.18509999999999593,1.6222
0.18519999999999592,1.6174
0.1852999999999959,1.6133
0.1853999999999959,1.6109
0.1854999999999959,1.6061
0.18559999999999588,1.6061
0.18569999999999587,1.6093
0.18579999999999586,1.6061
0.18589999999999585,1.6198
0.18599999999999584,1.6053
0.18609999999999582,1.6085
0.1861999999999958,1.6149
0.1862999999999958,1.6262
0.1863999999999958,1.6021
0.18649999999999578,1.6101
0.18659999999999577,1.6174
0.18669999999999576,1.6174
0.18679999999999575,1.6109
0.18689999999999574,1.6214
0.18699999999999573,1.6045
0.18709999999999571,1.6262
0.1871999999999957,1.6149
0.1872999999999957,1.6133
0.18739999999999568,1.6125
0.18749999999999567,1.6093
0.18759999999999566,1.6190
0.18769999999999565,1.6222
0.18779999999999564,1.6158
0.18789999999999563,1.6085
0.18799999999999562,1.6158
0.1880999999999956,1.6190
0.1881999999999956,1.6141
0.18829999999999558,1.6149
0.18839999999999557,1.6109
0.18849999999999556,1.6222
0.18859999999999555,1.6174
0.18869999999999554,1.6141
0.18879999999999553,1.6182
0.18889999999999552,1.6214
0.1889999999999955,1.6117
0.1890999999999955,1.6198
0.18919999999999548,1.6117
0.18929999999999547,1.6166
0.18939999999999546,1.6141
0.18949999999999545,1.6141
0.18959999999999544,1.6190
0.18969999999999543,1.6270
0.18979999999999542,1.6133
0.1898999999999954,1.6230
0.1899999999999954,1.6141
0.19009999999999538,1.6085
0.19019999999999537,1.6254
0.19029999999999536,1.6166
0.19039999999999535,1.6214
0.19049999999999534,1.6222
0.19059999999999533,1.6166
0.19069999999999532,1.6254
0.1907999999999953,1.6214
0.1908999999999953,1.6206
0.19099999999999528,1.6085
0.19109999999999527,1.6246
0.19119999999999526,1.6069
0.19129999999999525,1.6246
0.19139999999999524,1.6214
0.19149999999999523,1.6125
0.19159999999999522,1.6125
0.1916999999999952,1.6214
0.1917999999999952,1.6133
0.19189999999999519,1.6182
0.19199999999999517,1.6190
0.19209999999999516,1.6174
0.19219999999999515,1.6149
0.19229999999999514,1.6270
0.19239999999999513,1.6182
0.19249999999999512,1.6222
0.1925999999999951,1.6198
0.1926999999999951,1.6190
0.1927999999999951,1.6198
0.19289999999999508,1.6238
0.19299999999999506,1.6093
0.19309999999999505,1.6133
0.19319999999999504,1.6085
0.19329999999999503,1.6109
0.19339999999999502,1.6238
0.193499999999995,1.6198
0.193599999999995,1.6158
0.193699999999995,1.6278
0.19379999999999498,1.6085
0.19389999999999497,1.6198
0.19399999999999495,1.6246
0.19409999999999494,1.6166
0.19419999999999493,1.6222
0.19429999999999492,1.6190
0.1943999999999949,1.6158
0.1944999999999949,1.6085
0.1945999999999949,1.6254
0.19469999999999488,1.6238
0.19479999999999487,1.6198
0.19489999999999486,1.6295
0.19499999999999484,1.6149
0.19509999999999483,1.6278
0.19519999999999482,1.6238
0.1952999999999948,1.6158
0.1953999999999948,1.6158
0.1954999999999948,1.6141
0.19559999999999478,1.6077
0.19569999999999477,1.6262
0.19579999999999476,1.6190
0.19589999999999475,1.6278
0.19599999999999473,1.6125
0.19609999999999472,1.6270
0.1961999999999947,1.6174
0.1962999999999947,1.6262
0.1963999999999947,1.6238
0.19649999999999468,1.6270
0.19659999999999467,1.6206
0.19669999999999466,1.6206
0.19679999999999465,1.6230
0.19689999999999463,1.6214
0.19699999999999462,1.6133
0.1970999999999946,1.6222
0.1971999999999946,1.6190
0.1972999999999946,1.6238
0.19739999999999458,1.6262
0.19749999999999457,1.6230
0.19759999999999456,1.6206
0.19769999999999455,1.6198
0.19779999999999454,1.6182
0.19789999999999452,1.6295
0.1979999999999945,1.6141
0.1980999999999945,1.6222
0.1981999999999945,1.6270
0.19829999999999448,1.6198
0.19839999999999447,1.6149
0.19849999999999446,1.6190
0.19859999999999445,1.6190
0.19869999999999444,1.6214
0.19879999999999443,1.6262
0.19889999999999441,1.6190
0.1989999999999944,1.6174
0.1990999999999944,1.6206
0.19919999999999438,1.6222
0.19929999999999437,1.6230
0.19939999999999436,1.6303
0.19949999999999435,1.6182
0.19959999999999434,1.6125
0.19969999999999433,1.6222
0.19979999999999432,1.6254
0.1998999999999943,1.6230
